Wavelength (nm)
311.3714083160349
314.0817583865714
316.78890091172656
319.4928136428748
322.1934741859375
324.89086000467205
327.58494842396163
330.2757166331037
332.9631416891006
335.647200519948
338.32786992792444
341.005126592881
343.67894707553023
346.34930782073604
349.01618516080237
351.6795553187633
354.3393944116718
356.99567845388947
359.64838336037576
362.2974849499774
364.94295894871743
367.5847809930853
370.2229266333256
372.8573713367273
375.4880904909138
378.1150594071318
380.7382533235406
383.357647408502
385.9732167638689
388.5849364282752
391.19278138042534
393.7967265423827
396.39674678286013
398.9928169205087
401.58491172720693
404.17300593135053
406.7570742211416
409.33709124787805
411.9130316292429
414.4848699525934
417.0525807782511
419.6161386427905
422.17551806232854
424.7306935358144
427.2816395483183
429.82833057432134
432.3707410810044
434.90884553153813
437.44261838837156
439.97203411652185
442.4970671868639
445.0176920794193
447.5338832866456
450.04561531672664
452.55286269686025
455.0555999765491
457.5538017308895
460.0474425638606
462.53649711161415
465.02094004576344
467.50074607667284
469.9758899567474
472.4463464837218
474.91209050394997
477.3730969156943
479.8293406724156
482.2807967860612
484.7274403303556
487.169246444089
489.60619033440724
492.03824728010085
494.4653926348941
496.8876018307352
499.30485038108486
501.7171138842062
504.12436802645357
506.5265885855625
508.9237514339388
511.3158325419476
513.7028079812034
516.084653927859
518.4613466658947
520.8328625904079
523.1991782109025
525.5602701545787
527.916115169621
530.266690128489
532.611972031206
534.9519380086489
537.2865653258367
539.6158313852205
541.9397137299732
544.258190047278
546.5712381716181
548.8788360880665
551.1809619355746
553.4775940102625
555.768710768707
558.054290831233
560.3343129852
562.6087561882947
564.877599571818
567.1408224439749
569.3984042931651
571.6503247912701
573.8965637969449
576.1371013589054
578.3719177192194
580.6009933165951
582.8243087896698
585.041844980301
587.2535829368543
589.4595039174935
591.6595893934696
593.85382105241
596.0421808016089
598.2246507713152
600.401213318023
602.5718510277603
604.7365467193789
606.8952834478432
609.0480445075194
611.1948134354667
613.3355740147235
615.4703102776
617.5990065089653
619.7216472495375
621.8382172991732
623.9487017201573
626.0530858404912
628.1513552571828
630.2434958395364
632.3294937324409
634.4093353596604
636.4830074271223
638.5504969262078
640.6117911370403
642.666877631776
644.7157442778915
646.7583792414752
648.7947709905145
650.8249082981876
652.8487802461501
654.8663762278271
656.8776859517005
658.8826994445993
660.881407054989
662.8737994562608
664.8598676500203
666.8396029693781
668.8129970822386
670.7800419945888
672.7407300537885
674.6950539518594
676.6430067287744
678.5845817757468
680.5197728385197
682.4485740206559
684.3709797868266
686.2869849661008
688.1965847552357
690.0997747219644
691.996550808286
693.886909333756
695.7708469987738
697.6483608878733
699.5194484730126
701.3841076168613
703.2423365760927
705.0941340046711
706.9394989571416
708.77843089192
710.6109296745818
712.4369955811517
714.2566293013925
716.0698319420949
717.8766050303673
719.676950516924
721.4708707793752
723.258368625517
725.0394472966198
726.8141104707175
728.5823622658984
730.3442072435923
732.0996504118623
733.848697228692
735.5913536052761
737.3276259093097
739.0575209682776
740.7810460727425
742.4982089796363
744.2090179155485
745.913481580015
747.6116091488084
749.3034102772272
750.9888951033846
752.6680742514985
754.3409588351805
756.0075604607251
757.6678912304
759.3219637457341
760.9697911108079
762.6113869355424
764.2467653389888
765.8759409526172
767.4989289236066
769.1157449181344
770.7264051246648
772.3309262572395
773.9293255587656
775.5216208043064
777.1078303043697
778.6879729081975
780.2620680070555
781.8301355375224
783.3921959847795
784.9482703858989
786.498380333135
788.0425479772116
789.5807960306125
791.1131477708711
792.639627043859
794.1602582670754
795.6750664329372
797.1840771120677
798.6873164565858
800.1848112033966
801.6765886774789
803.162676795176
804.6431040674848
806.1178996033448
807.5870931129274
809.0507149109258
810.5087959198436
811.9613676732854
813.4084623192447
814.8501126233944
816.2863519723753
817.7172143770862
819.1427344759726
820.5629475383166
821.9778894675267
823.3875968044249
824.7921067305393
826.191457071391
827.5856862997845
828.9748335390971
830.3589385665675
831.7380418165864
833.1121843839845
834.4814080273228
835.8457551721821
837.205268914451
838.5599930236173
839.9099719460554
841.2552508083169
842.5958754204196
843.931892279137
845.263348571287
846.5902921770225
847.9127716731198
849.2308363362678
850.544536146358
851.8539217897742
853.1590446626806
854.4599568743118
855.756711250263
857.049361335778
858.3379613990393
859.622566434457
860.903232165959
862.1800150502797
863.4529722802492
864.7221617880834
865.9876422486726
867.2494730828713
868.5077144607874
869.7624273050718
871.0136732942073
872.2615148657985
873.506015219861
874.7472383221103
875.9852489072516
877.2201124822695
878.4518953297162
879.6806645110023
880.9064878696856
882.1294340347596
